count wavelength sigma
103303 7405.48 1.03
109610 7175.63 1.16
112660 10423.76 1.44
112639 10085.03 1.46
109477 6480.03 1.48
112457 8705.94 1.52
106477 9619.29 1.54
109763 6026.38 1.62
109691 10187.86 1.65
108682 11621.40 1.68
107599 12111.34 1.71
107825 10871.36 1.72
106738 12837.18 1.74
112933 13508.58 1.81
115695 14331.20 1.81
110050 6921.58 1.82
107631 12335.14 1.91
107133 13097.27 1.92
106392 11264.52 1.92
105911 13357.36 1.97
108496 8197.85 2.02
110910 8427.70 2.04
108297 11639.54 2.05
110049 13998.52 2.35
112472 8941.84 2.41
108750 6667.54 2.91
107977 5729.99 3.48
111226 7931.71 3.65
110489 9286.61 3.84
