count wavelength sigma
128379 5485.39 9.21
126897 6123.29 3.78
125317 6049.69 1.54
121209 6025.15 1.99
119752 5976.08 1.13
119258 5951.55 1.99
115715 5927.01 3.39
114962 5877.95 1.22
111779 5853.41 2.29
111728 6147.83 1.91
0 5755.27 1.53
0 5828.88 3.29
0 6172.36 1.28
0 5509.93 6.29
0 5534.46 1.72
0 5657.13 1.27
0 5730.74 1.89
0 5632.60 2.37
0 5608.07 3.33
0 5582.55 0.65
0 5599.23 0.41
0 5718.47 0.47
0 5705.71 0.42
0 5800.42 0.59
0 5823.48 0.23
0 5914.75 0.57
0 6014.85 0.49
0 6094.83 0.60
0 6113.97 0.30
