count wavelength sigma
137525 7429.67 0.98
138872 10447.95 1.22
147459 6092.91 1.23
189262 11191.94 1.23
195162 10750.39 1.24
221965 12262.55 1.42
227724 8415.60 1.42
175008 10187.86 1.43
135674 11361.30 1.48
139143 13774.72 1.48
220936 9812.84 1.49
178845 9214.03 1.49
228466 7726.05 1.51
136946 8681.74 1.56
143437 11941.97 1.57
193038 13151.71 1.57
193838 6625.20 1.68
139853 5869.11 1.71
175070 7103.04 1.77
135201 12564.99 1.78
158485 13448.09 1.79
172745 9933.82 1.89
195933 6951.83 1.93
144191 6413.49 1.98
163461 8270.43 2.05
158232 8911.59 2.09
215672 11639.54 2.27
167955 12964.20 2.28
210329 14343.29 2.59
