count wavelength sigma
142817 5485.39 1.92
141559 5902.48 1.05
141162 5877.95 1.58
140868 6074.22 1.56
139707 6098.76 1.22
138736 5804.34 1.11
134908 5779.81 1.44
131834 5976.08 1.74
129521 5706.20 1.45
129263 5632.60 1.08
127456 5608.07 1.85
122689 5583.53 2.30
116279 5509.93 1.57
114818 5681.67 1.75
0 5951.55 2.14
0 5556.54 0.60
0 5574.21 0.34
0 5676.76 0.43
0 5754.29 0.52
0 5766.07 0.33
0 5833.29 0.63
0 5876.47 0.38
0 5942.72 0.42
0 6129.67 0.64
0 6000.62 1.02
0 6055.58 0.21
0 6171.87 0.75
0 6048.71 0.22
0 6189.53 0.47
