count wavelength sigma
181778 9220.07 1.75
181293 11960.12 1.44
180798 13339.22 2.23
179098 12504.50 1.65
172911 13526.72 1.92
162918 12571.04 2.14
160884 12958.15 1.76
158898 14028.76 1.70
158883 11651.64 2.07
158478 14331.20 1.73
155230 11337.11 1.79
150189 11046.77 2.09
141230 10732.24 2.20
139763 10435.86 1.56
139076 10127.37 1.81
136195 10097.13 1.48
134493 9812.84 2.50
132828 8917.64 2.16
132275 8609.16 1.74
128004 8276.48 2.07
126209 8306.73 1.64
125964 7732.10 1.70
125229 5899.36 2.22
125045 7405.48 1.30
124800 7157.48 1.40
124502 6437.69 1.91
124231 6679.64 2.03
124022 6891.34 1.73
120864 5584.83 2.25
