count wavelength
113193 6172.36
112133 5509.93
110690 5534.46
110144 5559.00
107597 5583.53
106990 6093.36
106135 6049.69
106090 6025.15
105938 6000.62
105778 5804.34
105550 5779.81
105308 5755.27
104703 5508.95
104627 5652.72
104387 5694.43
103569 5679.22
102861 5718.47
0 5747.91
0 5851.94
0 5906.90
0 5872.55
0 5952.04
0 5941.24
0 5993.26
0 5879.91
0 6106.61
0 6135.07
0 5628.18
0 6168.44
