count wavelength
118624 10393.52
115445 9915.67
113280 10816.92
112530 11300.82
112207 10581.02
112174 11675.83
112091 11518.57
111938 9812.84
111910 12044.80
111544 12498.45
110428 9080.96
110399 8875.30
110075 9316.85
110010 8361.16
109382 12716.20
109297 13085.17
109186 7931.71
108830 8179.70
108759 7484.11
108607 13442.04
108461 7133.29
108404 13611.41
108059 6056.62
107959 6480.03
107917 6891.34
107906 6679.64
107889 5609.02
107765 14004.57
107638 14349.34
