count wavelength
120050 10121.33
119576 9268.46
119354 12444.01
118496 11639.54
117694 12032.70
116296 11409.69
114854 10792.73
111141 11252.43
110185 12782.74
109551 12982.34
109511 10562.88
107944 13435.99
106988 13508.58
105934 10109.23
104688 9619.29
104506 14004.57
103860 8911.59
103624 8705.94
102920 14349.34
102720 8349.07
102570 8179.70
102513 7931.71
102208 7399.43
102075 7181.67
102047 6056.62
101313 6407.45
101082 6625.20
98485 6836.90
0 5584.83
