count wavelength
116652 90.23
114425 88.29
113776 87.59
112097 96.19
111307 93.56
110996 97.02
110686 92.10
110522 104.44
110067 99.52
109680 107.91
109442 100.35
109093 111.65
108998 106.24
108612 103.33
108022 110.40
107950 113.80
107844 119.62
107750 118.72
107159 115.46
106787 124.41
106730 141.32
106651 124.61
106592 136.05
106504 138.27
106237 133.84
106103 143.82
106055 130.72
105947 126.63
105900 132.80
105820 128.22
105790 153.52
105788 121.36
105753 117.20
105605 140.01
105603 150.61
105549 143.26
105454 154.70
105453 150.20
105320 148.67
105070 156.02
104833 159.07
104647 161.15
104585 170.16
104379 167.60
103989 163.71
103958 145.27
103948 164.62
103861 176.61
103807 176.05
103508 160.80
103444 178.83
103335 173.14
103259 169.33
103151 180.77
102933 172.03
102824 182.71
102754 185.00
102597 186.73
102455 188.19
102386 190.27
