count wavelength
120753 130.51
120285 132.86
120278 161.64
119514 159.69
119453 167.53
119114 162.88
118898 169.05
118266 164.48
118235 169.75
118062 158.17
116322 172.52
115962 155.81
113874 133.63
113222 151.03
112744 174.25
112369 149.23
111247 175.08
111193 153.66
110949 178.07
110435 154.77
109651 179.66
109400 181.53
109357 144.86
108280 147.15
107606 145.41
107180 136.26
106655 139.59
105572 136.89
105232 141.32
104561 183.33
104517 143.06
104506 184.93
104053 186.04
103786 128.01
103669 188.46
103626 126.49
103544 124.61
103354 121.43
103343 123.02
103139 190.20
102967 120.04
102883 117.75
102877 114.22
102821 108.95
102767 114.01
102720 108.67
102542 93.14
102538 111.17
102489 115.95
102460 93.70
102379 96.75
101829 96.19
101569 105.55
101407 100.63
101406 99.59
101236 102.08
100965 104.09
100949 89.67
100451 87.80
94781 90.02
