count wavelength
120753 887.00
120285 853.00
120278 438.00
119514 466.00
119453 353.00
119114 420.00
118898 331.00
118266 397.00
118235 321.00
118062 488.00
116322 281.00
115962 522.00
113874 842.00
113222 591.00
112744 256.00
112369 617.00
111247 244.00
111193 553.00
110949 201.00
110435 537.00
109651 178.00
109400 151.00
109357 680.00
108280 647.00
107606 672.00
107180 804.00
106655 756.00
105572 795.00
105232 731.00
104561 125.00
104517 706.00
104506 102.00
104053 86.00
103786 923.00
103669 51.00
103626 945.00
103544 972.00
103354 1018.00
103343 995.00
103139 26.00
102967 1038.00
102883 1071.00
102877 1122.00
102821 1198.00
102767 1125.00
102720 1202.00
102542 1426.00
102538 1166.00
102489 1097.00
102460 1418.00
102379 1374.00
101829 1382.00
101569 1247.00
101407 1318.00
101406 1333.00
101236 1297.00
100965 1268.00
100949 1476.00
100451 1503.00
94781 1471.00
