count wavelength
133973 5828.88
130291 5509.93
128405 5534.46
127770 5559.00
127741 5583.53
127630 6049.69
125169 6025.15
124117 6000.62
123850 5853.41
123659 5804.34
123609 5508.95
123483 5652.72
123385 5679.22
121947 5694.43
119535 5718.47
118858 5754.29
118001 5929.47
116647 5771.47
111135 5952.04
0 5906.90
0 5993.26
0 5901.99
0 5796.49
0 5628.18
0 6105.14
0 6135.07
0 6093.36
0 6171.87
0 6191.01
