count wavelength
223032 5466.26
222727 5492.75
218246 5483.43
217246 5506.00
217152 5520.23
213686 5536.42
211998 5548.20
210139 5559.49
209113 5602.18
209028 5621.80
205916 5567.34
205764 5640.94
204562 5632.60
202801 5578.62
200717 5591.38
197363 5658.61
195392 5719.45
195244 5682.16
194561 5671.36
191230 5730.25
190159 5769.50
189532 5739.57
188772 5696.39
187548 5695.90
186973 5752.82
186041 5806.30
182582 5843.11
181356 5781.28
177614 5887.76
177176 5845.56
176912 5808.27
176320 5783.24
175309 5904.44
169693 6137.52
168714 6157.15
166541 6149.79
158150 5858.32
158098 5872.06
156806 5821.03
156123 6172.36
154583 6178.74
152455 5921.13
150825 5916.22
146507 6192.97
143856 5957.93
136571 5938.79
133772 5947.62
133623 5983.44
132203 6001.11
130225 5970.69
130044 6114.46
129785 6006.02
129740 6024.66
125619 6072.26
124376 6076.68
124096 6044.78
123562 6037.91
121436 6097.28
121414 6101.21
120720 6053.12
