count wavelength
223362 5509.93
221637 5534.46
217035 5559.00
216908 5718.96
215378 5779.81
212780 5804.34
206730 6147.83
202259 6134.09
195654 5503.06
195056 5628.18
193630 5604.14
184029 5632.60
175531 5677.74
173069 5700.32
166588 5754.78
152705 5779.32
151671 5845.07
133623 5895.12
131242 5871.57
130739 5925.05
123269 6196.40
0 5975.59
0 5951.06
0 5994.73
0 6061.46
0 6020.25
0 6042.82
0 6081.58
0 6109.06
