count wavelength
192842 5509.93
187545 5534.46
187321 5559.00
187077 6025.15
183004 6000.62
180649 5976.08
179220 5508.95
178858 5604.63
173690 5628.18
173570 5652.72
166874 5679.22
166562 5705.71
163427 5730.25
162804 5778.34
162729 5743.99
161492 5789.13
158312 5847.03
155230 5857.83
148860 5818.57
144615 5895.12
139468 5906.90
133468 5941.74
123346 6193.46
0 6151.75
0 6125.25
0 6110.04
0 6089.43
0 5975.59
0 6064.90
