count wavelength
115894 11639.54
113227 9347.10
112660 11621.40
112639 12111.34
112472 12335.14
112457 10871.36
112018 11264.52
110243 12837.18
110050 9812.84
109763 10423.76
109758 13079.12
109610 9988.26
109480 10187.86
109477 5893.31
109313 13442.04
108590 8941.84
108496 8179.70
108045 7931.71
108001 8839.01
107977 8427.70
107956 13508.58
107631 7459.91
107599 7109.09
107133 13998.52
106738 6480.03
106392 6667.54
105911 5729.99
103852 6891.34
0 14349.34
