count wavelength
132185 5681.67
128787 5853.41
128730 6025.15
128379 6049.69
126897 5730.74
125317 5706.20
124568 5877.95
122958 5902.48
122316 5559.00
119752 5534.46
119590 5509.93
118688 5508.95
117845 5607.08
114361 5629.16
112716 5652.72
112500 5679.71
112238 5777.84
110152 5791.09
0 5849.49
0 5823.48
0 5942.23
0 5971.18
0 5988.84
0 6014.85
0 6094.83
0 6113.97
0 6157.15
0 6135.07
0 6191.50
