count wavelength
124815 9268.46
123928 12105.29
123653 11639.54
123567 11579.05
123340 12262.55
122848 12770.64
120973 10871.36
120843 12994.44
120778 13351.31
120165 11083.06
120100 10460.05
120066 10278.59
119858 9812.84
119037 13508.58
118538 9891.48
117882 9074.91
117631 8306.73
117580 8705.94
117332 7931.71
117139 8179.70
117034 5953.80
116702 7447.82
116524 14046.91
116239 5729.99
115839 6407.45
115720 7096.99
115418 14270.71
114376 6891.34
111695 6643.34
