count wavelength
141785 7399.43
141712 9268.46
131235 12099.24
130883 12335.14
130534 12970.25
128886 13508.58
124141 12770.64
123348 11264.52
123031 11409.69
121946 13145.66
120395 11639.54
118100 10647.56
117542 10871.36
117272 13907.79
117192 10139.47
115294 14119.49
114809 9746.31
114663 9891.48
114524 9050.71
114516 8639.40
114325 8415.60
113939 8179.70
113550 7363.13
113083 6056.62
112734 6407.45
111676 6921.58
110104 5584.83
108771 6770.37
0 7931.71
