count wavelength
153918 887.00
134979 866.00
134113 333.00
132036 281.00
131782 304.00
131685 450.00
131402 477.00
130610 366.00
130485 254.00
129437 210.00
129363 375.00
128181 438.00
127540 244.00
127421 420.00
126467 178.00
124726 173.00
124217 143.00
124096 537.00
123772 553.00
122321 524.00
122288 842.00
122257 615.00
122221 86.00
121481 635.00
121125 680.00
121100 591.00
120268 717.00
120070 652.00
117713 748.00
117701 68.00
117272 801.00
116685 799.00
116482 923.00
115887 26.00
115563 938.00
115455 1429.00
115425 973.00
115194 118.00
115121 772.00
114972 992.00
114860 1002.00
114241 1038.00
114146 1204.00
113508 1122.00
113254 1055.00
113190 1182.00
113032 1125.00
113004 1086.00
112948 1166.00
112601 1418.00
112595 1376.00
112576 1506.00
112553 1369.00
112471 1249.00
112433 1465.00
112430 1260.00
112235 1476.00
111802 1333.00
107839 1313.00
104352 1290.00
