count wavelength
153918 130.51
134979 131.96
134113 168.91
132036 172.52
131782 170.92
131685 160.80
131402 158.93
130610 166.63
130485 174.39
129437 177.44
129363 166.00
128181 161.64
127540 175.08
127421 162.88
126467 179.66
124726 180.01
124217 182.09
124096 154.77
123772 153.66
122321 155.67
122288 133.63
122257 149.36
122221 186.04
121481 147.98
121125 144.86
121100 151.03
120268 142.29
120070 146.80
117713 140.14
117701 187.29
117272 136.47
116685 136.61
116482 128.01
115887 190.20
115563 126.97
115455 92.93
115425 124.55
115194 183.82
115121 138.48
114972 123.23
114860 122.53
114241 120.04
114146 108.53
113508 114.22
113254 118.86
113190 110.06
113032 114.01
113004 116.71
112948 111.17
112601 93.70
112595 96.61
112576 87.59
112553 97.09
112471 105.41
112433 90.44
112430 104.65
112235 89.67
111802 99.59
107839 100.97
104352 102.57
