count wavelength
228466 9268.46
226505 13847.30
223570 13490.43
220936 13151.71
215672 14343.29
210329 12964.20
195933 12286.75
195162 12716.20
191878 11941.97
189262 11693.98
188803 11191.94
178845 11361.30
175070 10738.29
175008 10490.29
174282 10157.62
164787 9933.82
162591 9812.84
158485 5869.11
158232 7744.20
143720 8911.59
143437 8663.60
140471 8270.43
139115 8415.60
138872 7429.67
137525 6092.91
136946 7103.04
135997 6425.59
134764 7066.75
129633 6625.20
