count wavelength
7750975 88.01
7726895 89.74
7715903 94.94
7703195 91.41
7685412 91.68
7679585 96.61
7577912 98.41
7485897 100.14
7456936 101.88
7373389 103.61
7282906 105.34
7266793 107.08
7099344 108.81
6967410 110.54
6626670 112.27
6570083 113.94
6515492 115.74
6505369 116.36
6496210 119.21
6386209 120.94
6383193 122.67
6375068 123.92
6299643 124.48
6280288 127.87
6212118 138.27
6085835 128.98
6027588 132.73
5933574 131.34
5813225 140.01
5752007 133.14
5621643 134.88
5615879 141.67
5614630 143.47
5525435 190.27
5499338 145.20
5462808 146.94
5124564 186.87
5075944 148.67
4990328 179.38
4792507 179.94
4248607 185.14
3917140 183.61
3911297 150.40
3895694 152.14
3588329 153.87
3271103 181.67
3134761 155.60
2864655 156.57
2678074 159.07
2645405 159.42
2548962 176.47
2455925 162.54
2300043 164.06
2263669 164.41
2056441 171.06
1843554 169.47
1829543 174.74
1754139 171.55
1680190 167.04
1491883 173.00
