count wavelength
11103210 188.81
11043013 187.56
11033798 185.14
10891307 184.44
10577942 181.67
10366390 180.84
10138199 178.34
10068121 176.47
9944231 174.74
9823853 173.00
9674871 168.71
8712212 166.63
8399086 169.82
8244584 171.27
8176761 164.34
8058904 160.87
7956126 131.34
7916579 163.16
7910378 160.80
7841999 133.00
7752877 157.41
7555400 155.95
7457093 153.94
7385138 152.76
7338167 150.61
6359982 148.74
6354478 147.08
6305175 145.55
6179004 134.04
6051467 143.54
5765355 141.88
5696886 140.07
5333151 138.55
5131810 135.64
5119339 137.23
4997050 127.94
4690854 108.88
4612782 108.74
4491867 126.56
4157005 125.24
3885693 114.98
3271882 112.07
3231658 114.01
3137383 121.01
3115170 122.74
3022990 119.83
2736396 118.24
2680110 93.21
2679732 116.85
2649307 94.94
2635235 96.05
2515527 88.01
2392736 96.75
2212733 89.05
1946420 90.02
1832335 99.93
1776541 105.48
1743353 101.39
1648560 103.68
1555555 102.71
