count wavelength
142817 5828.88
141559 5509.93
141423 5534.46
140980 6123.29
140868 6098.76
139971 5951.55
138683 5927.01
134296 5657.13
132931 5681.67
131834 5804.34
130527 5509.44
129263 5583.04
127456 5607.08
127129 5631.13
120662 5655.17
118565 5730.25
117284 5754.29
115761 5766.07
113214 5800.91
0 5876.47
0 5890.70
0 5925.54
0 6000.13
0 6017.79
0 6055.58
0 6168.93
0 6094.83
0 6048.71
0 6189.53
