count wavelength
10956197 14052.96
10948269 13835.21
10510721 9274.51
10414174 13490.43
9877461 13163.80
9309180 12952.10
8063553 12710.15
7988793 12105.29
7802621 12268.60
7478206 11639.54
7452935 11391.55
6433188 11064.92
6200202 10847.17
6169609 10472.15
6045519 10163.67
5378791 9812.84
4996577 9927.77
4869890 5881.21
4479640 8917.64
3563019 7738.15
3070697 8687.79
2804811 8306.73
2748069 8264.39
2569674 7435.72
2401800 6086.87
2059700 7096.99
1975739 6407.45
1819629 6613.10
1734136 6951.83
