count wavelength
208631 87.59
207161 89.67
207089 91.41
207014 96.68
206592 92.10
206270 98.41
205772 93.28
205127 99.52
205061 100.35
204454 103.47
204079 103.75
203933 106.94
202539 107.91
202539 109.02
202353 112.27
202065 113.80
201327 115.46
200604 117.20
200440 119.14
199675 120.94
199632 122.53
199534 124.41
198920 126.14
198612 190.27
198433 187.22
198243 127.60
198064 186.73
197989 155.53
197314 156.64
197009 159.07
196417 152.28
196366 161.15
196112 163.99
196013 150.61
195106 160.80
194495 164.82
194133 150.06
191129 167.74
186990 183.96
183512 129.54
181138 182.02
177122 169.40
175995 147.22
172505 131.34
169072 171.06
168903 145.27
165783 143.82
164370 172.45
163563 141.88
162541 132.80
162206 180.01
155930 140.28
149935 174.67
140224 175.50
139712 138.48
138940 176.47
138068 178.20
137511 134.74
134283 135.43
131326 136.95
