count wavelength
208631 5472.14
207161 5486.86
207089 5499.13
207014 5536.42
206592 5504.04
206270 5548.69
205772 5512.38
205127 5556.54
205061 5562.43
204454 5584.51
204079 5586.47
203933 5609.05
202539 5615.92
202539 5623.77
202353 5646.83
202065 5657.62
201327 5669.40
200604 5681.67
200440 5695.41
199675 5708.17
199632 5719.45
199534 5732.70
198920 5744.97
198612 6198.86
198433 6177.27
198243 5755.27
198064 6173.83
197989 5953.02
197314 5960.87
197009 5978.05
196417 5929.96
196366 5992.77
196112 6012.89
196013 5918.18
195106 5990.31
194495 6018.77
194133 5914.26
191129 6039.38
186990 6154.21
183512 5769.01
181138 6140.47
177122 6051.16
175995 5894.14
172505 5781.77
169072 6062.94
168903 5880.40
165783 5870.09
164370 6072.75
163563 5856.36
162541 5792.07
162206 6126.24
155930 5845.07
149935 6088.45
140224 6094.34
139712 5832.31
138940 6101.21
138068 6113.48
137511 5805.81
134283 5810.72
131326 5821.52
