count wavelength
145077 5730.74
144549 5509.93
144223 5534.46
143202 5559.00
142568 6025.15
142481 6049.69
142160 6074.22
141759 5755.27
141509 5706.20
141401 5508.95
140254 5599.23
139701 5628.67
139426 5659.10
139238 5648.79
132694 5705.71
128833 5956.95
128677 5928.98
128297 5988.35
127073 5902.97
118314 5879.91
0 6023.19
0 5849.98
0 5799.43
0 5855.37
0 5827.90
0 6148.32
0 6190.03
0 6130.65
0 6122.80
