count wavelength
122743 9310.80
122551 11954.07
122127 11639.54
121681 12504.50
120681 12571.04
120291 11573.01
118418 13006.54
117862 10768.53
116149 10550.78
115672 11228.23
115603 13357.36
114115 10181.81
113655 10054.79
113131 9812.84
113039 13732.38
112101 13847.30
111990 8935.79
111678 8711.99
111529 8197.85
110928 8349.07
110818 7732.10
110675 14337.25
110592 7411.52
110434 7139.33
110258 6056.62
109471 6407.45
109313 7066.75
108332 5584.83
105997 6631.25
