count wavelength
141035 9310.80
138635 11954.07
137022 11784.71
136809 12444.01
136519 12788.79
134820 12988.39
131480 13339.22
127477 13508.58
127363 11385.50
126842 11040.72
124932 10871.36
124215 14004.57
121108 10460.05
120675 10411.66
118702 9945.91
118587 9812.84
118572 14349.34
118087 8953.93
117291 8705.94
117180 8355.12
116866 7931.71
115460 8022.44
114996 7441.77
114911 5857.02
114433 7121.19
113667 6056.62
113317 7078.85
112776 6467.93
109361 6637.29
