count wavelength
128778 105.06
115572 108.53
114180 87.46
111747 130.51
110889 89.67
108775 114.22
108458 97.09
108302 122.26
107860 114.01
107273 90.30
106987 126.97
105863 91.96
105776 118.86
105714 133.63
105326 129.61
105113 136.47
104577 106.59
104246 116.71
104021 124.41
103973 142.29
103927 125.59
103912 110.06
103749 138.06
103664 95.50
103627 138.48
103611 102.57
103395 111.17
103355 120.04
103326 144.86
103280 141.18
103228 155.26
103163 101.60
103066 99.59
102993 147.28
102948 149.36
102931 151.03
102914 146.80
102747 153.66
102707 93.70
102690 158.58
102686 157.27
102666 160.87
102639 160.80
102604 162.88
102574 167.53
102573 168.91
102555 172.52
102555 165.86
102551 170.92
102473 174.60
102429 175.08
102314 176.96
102306 181.05
102244 179.66
102135 182.09
102127 185.00
102111 186.04
102041 187.84
101959 190.06
101778 132.24
