count wavelength
115106 6074.22
112047 5509.93
106228 5534.46
104825 5559.00
104596 6098.76
104255 5608.07
103837 5632.60
103386 5657.13
103345 5681.67
103181 6123.29
103167 5804.34
103141 5755.27
102664 5779.81
102608 5497.17
101952 5738.59
101779 5603.65
0 5730.25
0 5950.57
0 5914.26
0 5874.02
0 5849.49
0 5899.54
0 5972.65
0 6011.41
0 6041.84
0 5997.67
0 6073.73
0 6170.40
0 6192.48
