count wavelength
181778 8306.73
181293 9220.07
180798 13339.22
179098 12504.50
173084 13526.72
167384 12032.70
162812 12571.04
159039 12958.15
158478 14028.76
154664 11681.88
147705 14264.66
141230 11216.13
140168 11337.11
138443 10774.58
135978 10423.76
133735 10175.76
132275 10036.64
132044 9812.84
126719 8978.13
126182 8639.40
125964 8276.48
125229 7726.05
125045 7478.06
124857 5935.65
124800 7139.33
124502 6437.69
124231 6679.64
120864 6891.34
0 5584.83
