count wavelength
135458 9256.37
135456 12220.21
133834 11657.69
133769 12831.13
130846 12280.70
130447 13357.36
127341 13006.54
127336 11409.69
126860 11312.91
125386 13738.43
125232 10762.48
122644 13895.69
119734 10587.07
118764 10151.57
117625 10036.64
117326 9806.80
115989 14331.20
115971 8911.59
115936 8675.69
115560 7756.30
115304 8197.85
114673 7399.43
114196 8336.97
114024 7187.72
113066 6056.62
113033 7042.56
112937 6455.83
112775 6637.29
111141 5584.83
